# Units:
#  "lambda" is in Angstroms
#  "pass" is the contribution to the detector signal per photon
#         entering the atmosphere of Earth
#
# Bandpass Name(s): Band B
#
# Instrument: Sofia/HAWC
#
# Determined by: HAWC Instrument Team
#
# Date of determination: Unknown
#
# Meaning of/Reason for default column: Only column available
#
# Notes:
#
#
# Obtained from Ravi Sankrit at the Sofia helpdesk on 2015-May-19 on 
# behalf of the HAWC Instrument Team.  Transmission includes the effect
# of the atmosphere but it is not clear if it includes the CCD QE.
#
# J. Moustakas, 2015-May-19, Siena College

538500. 0.00502774
539000. 0.00512058
539500. 0.00532627
540000. 0.00553265
540500. 0.00572825
541000. 0.00583247
541500. 0.00600444
542000. 0.00620985
542500. 0.00652552
543000. 0.00676899
543500. 0.00696425
544000. 0.00701473
544500. 0.00636753
545000. 7.91015e-07
545500. 0.00607453
546000. 0.00802244
546500. 0.00864829
547000. 0.00911434
547500. 0.00949988
548000. 0.00980272
548500. 0.0101051
549000. 0.0102590
549500. 0.0101554
550000. 0.00958572
550500. 0.00727773
551000. 0.000431898
551500. 6.92210e-06
552000. 0.00706126
552500. 0.0111118
553000. 0.0128588
553500. 0.0139653
554000. 0.0149875
554500. 0.0157148
555000. 0.0159541
555500. 0.0173611
556000. 0.0181739
556500. 0.0189929
557000. 0.0197731
557500. 0.0181907
558000. 0.0157571
558500. 0.0103981
559000. 0.0216247
559500. 0.0220076
560000. 0.0204826
560500. 0.0212778
561000. 0.0202682
561500. 0.0169322
562000. 0.0102149
562500. 0.00145353
563000. 0.00000
563500. 0.00000
564000. 0.00186376
564500. 0.0129209
565000. 0.0228131
565500. 0.0292408
566000. 0.0295196
566500. 0.0349262
567000. 0.0324539
567500. 0.00553018
568000. 5.30138e-06
568500. 0.00765810
569000. 0.0378159
569500. 0.0490199
570000. 0.0552687
570500. 0.0558552
571000. 0.0625848
571500. 0.0657132
572000. 0.0681415
572500. 0.0705970
573000. 0.0725006
573500. 0.0735266
574000. 0.0726427
574500. 0.0692214
575000. 0.0576020
575500. 0.0291344
576000. 0.000131751
576500. 0.00000
577000. 0.00000
577500. 0.0310778
578000. 0.0753228
578500. 0.0842491
579000. 0.107908
579500. 0.112764
580000. 0.122365
580500. 0.126451
581000. 0.129997
581500. 0.131863
582000. 0.131983
582500. 0.130412
583000. 0.125711
583500. 0.116684
584000. 0.101891
584500. 0.0790096
585000. 0.0475162
585500. 0.0150104
586000. 0.000495750
586500. 0.00000
587000. 0.00000
587500. 0.00000
588000. 0.000843298
588500. 0.0189627
589000. 0.0645892
589500. 0.111955
590000. 0.151278
590500. 0.140751
591000. 0.210461
591500. 0.237469
592000. 0.257282
592500. 0.272713
593000. 0.277364
593500. 0.00366000
594000. 0.303736
594500. 0.326616
595000. 0.340020
595500. 0.351149
596000. 0.361092
596500. 0.370113
597000. 0.375513
597500. 0.378667
598000. 0.372773
598500. 0.347986
599000. 0.265743
599500. 0.0292518
600000. 0.00000
600500. 0.184622
601000. 0.319874
601500. 0.0597924
602000. 0.341452
602500. 0.430235
603000. 0.415332
603500. 0.467873
604000. 0.477888
604500. 0.396956
605000. 0.479640
605500. 0.498583
606000. 0.504828
606500. 0.510257
607000. 0.515614
607500. 0.520861
608000. 0.525890
608500. 0.530680
609000. 0.533019
609500. 0.534524
610000. 0.537329
610500. 0.542960
611000. 0.544182
611500. 0.509905
612000. 0.544923
612500. 0.545349
613000. 0.536437
613500. 0.540905
614000. 0.540475
614500. 0.539164
615000. 0.537903
615500. 0.532107
616000. 0.534581
616500. 0.530761
617000. 0.520298
617500. 0.474993
618000. 0.0109428
618500. 0.420834
619000. 0.510337
619500. 0.527419
620000. 0.533385
620500. 0.535624
621000. 0.536466
621500. 0.535908
622000. 0.534788
622500. 0.532866
623000. 0.528922
623500. 0.516036
624000. 0.383877
624500. 0.400511
625000. 0.513253
625500. 0.517819
626000. 0.513808
626500. 0.500605
627000. 0.508350
627500. 0.509148
628000. 0.503264
628500. 0.488645
629000. 0.392421
629500. 0.326278
630000. 0.461123
630500. 0.456311
631000. 0.430012
631500. 0.382352
632000. 0.283099
632500. 0.0936439
633000. 0.00000
633500. 0.00000
634000. 0.0497058
634500. 0.00000
635000. 0.0812320
635500. 0.280979
636000. 0.229017
636500. 0.439491
637000. 0.457448
637500. 0.466933
638000. 0.469560
638500. 0.430986
639000. 0.130091
639500. 0.0168755
640000. 0.336917
640500. 0.478429
641000. 0.487332
641500. 0.488813
642000. 0.420188
642500. 0.485783
643000. 0.489441
643500. 0.488289
644000. 0.485929
644500. 0.482698
645000. 0.478613
645500. 0.454248
646000. 0.465341
646500. 0.453674
647000. 0.440095
647500. 0.423275
648000. 0.400163
648500. 0.366042
649000. 0.133977
649500. 0.255677
650000. 0.159108
650500. 0.0506746
651000. 0.000439547
651500. 0.00000
652000. 0.00000
652500. 0.00732482
653000. 0.0785722
653500. 0.180794
654000. 0.246818
654500. 0.283028
655000. 0.304145
655500. 0.300559
656000. 0.304973
656500. 0.319068
657000. 0.305995
657500. 0.0463776
658000. 0.270468
658500. 0.237363
659000. 0.204509
659500. 0.145415
660000. 0.0599264
660500. 0.000401629
661000. 0.00000
661500. 0.00321297
662000. 0.0154934
662500. 0.00608851
663000. 0.000283114
663500. 0.00000
664000. 0.00000
664500. 0.00000
665000. 0.00000
665500. 0.00000
666000. 0.00211634
666500. 0.0159776
667000. 0.0405426
667500. 0.0642752
668000. 0.0750559
668500. 0.0632550
669000. 0.0532757
669500. 0.0198822
670000. 0.000693393
670500. 0.00000
671000. 0.00000
671500. 0.00000
672000. 0.000988338
672500. 0.00363702
673000. 0.0353133
673500. 0.120130
674000. 0.162576
674500. 0.188770
675000. 0.181844
675500. 0.217810
676000. 0.226218
676500. 0.233666
677000. 0.236381
677500. 0.224644
678000. 0.236686
678500. 0.221200
679000. 0.177291
679500. 0.231713
680000. 0.233762
680500. 0.231998
681000. 0.230106
681500. 0.226845
682000. 0.224831
682500. 0.221713
683000. 0.218930
683500. 0.215876
684000. 0.212710
684500. 0.209400
685000. 0.202071
685500. 0.202477
686000. 0.199039
686500. 0.191897
687000. 0.192003
687500. 0.181242
688000. 0.184653
688500. 0.180846
689000. 0.176631
689500. 0.169765
690000. 0.151896
690500. 0.164780
691000. 0.161465
691500. 0.155904
692000. 0.152713
692500. 0.149686
693000. 0.145922
693500. 0.142145
694000. 0.138544
694500. 0.135018
695000. 0.127499
695500. 0.128146
696000. 0.124936
696500. 0.121755
697000. 0.118590
697500. 0.115426
698000. 0.112401
698500. 0.109344
699000. 0.106396
699500. 0.103439
700000. 0.100517
700500. 0.0914497
701000. 0.0947485
701500. 0.0914521
702000. 0.0888635
702500. 0.0860974
703000. 0.0824313
703500. 0.0791938
704000. 0.0772156
704500. 0.0739772
705000. 0.0705518
705500. 0.0660664
706000. 0.0592396
706500. 0.0412309
707000. 0.00000
707500. 0.0327241
708000. 0.0411025
708500. 0.0355665
709000. 0.0249955
709500. 0.0100416
710000. 0.000291215
710500. 0.00000
711000. 0.00000
711500. 0.00176225
712000. 0.0121814
712500. 0.0205705
713000. 0.0236069
713500. 0.0238401
714000. 0.0187587
714500. 0.00791133
715000. 1.89326e-05
715500. 0.00000
716000. 0.00146069
716500. 0.0103114
717000. 0.0133828
717500. 0.00707089
718000. 0.00597225
718500. 0.000728992
719000. 0.00000
719500. 0.00000
720000. 0.00000
720500. 0.000405724
721000. 0.00416243
721500. 0.0121413
722000. 0.0154570
722500. 0.0115959
723000. 0.0199400
723500. 0.0211380
724000. 0.0216077
724500. 0.0217554
725000. 0.0216574
725500. 0.0214640
726000. 0.0211807
726500. 0.0207922
727000. 0.0203579
727500. 0.0197759
728000. 0.0174122
728500. 0.0190245
729000. 0.0185289
729500. 0.0181254
730000. 0.0178134
730500. 0.0173809
731000. 0.0169373
731500. 0.0165125
732000. 0.0155546
732500. 0.0156075
733000. 0.0152377
733500. 0.0148091
734000. 0.0139486
734500. 0.0139751
735000. 0.0133795
735500. 0.0129198
736000. 0.00672104
736500. 0.0117835
737000. 0.0119120
737500. 0.0113989
738000. 0.0113388
738500. 0.0109948
739000. 0.0106186
739500. 0.00784084
740000. 0.00985297
740500. 0.00948869
741000. 0.00940617
741500. 0.00906424
742000. 0.00873423
742500. 0.00811809
743000. 0.00806980
743500. 0.00772371
744000. 0.00689890
744500. 0.00706772
745000. 0.00683761
745500. 0.00598515
746000. 0.00597240
746500. 0.00576824
747000. 0.00535678
747500. 0.00483336
748000. 0.00413152
748500. 0.00297757
749000. 0.000687631
749500. 0.00000
750000. 0.000791903
750500. 0.00149391
751000. 0.00115202
751500. 0.000597044
752000. 0.000153157
752500. 6.07300e-06
753000. 0.00000
753500. 0.00000
754000. 0.00000
754500. 0.00000
