# Units:
#  "lambda" is in Angstroms
#  "pass" is the contribution to the detector signal per photon
#         entering the atmosphere of Earth
#
# Bandpass Name(s): BandD
#
# Instrument: Sofia/HAWC
#
# Determined by: HAWC Instrument Team
#
# Date of determination: Unknown
#
# Meaning of/Reason for default column: Only column available
#
# Notes:
#
#
# Obtained from Ravi Sankrit at the Sofia helpdesk on 2015-May-19 on 
# behalf of the HAWC Instrument Team.  Transmission includes the effect
# of the atmosphere but it is not clear if it includes the CCD QE.
#
# J. Moustakas, 2015-May-19, Siena College

1.18800e+06 0.00124994
1.19020e+06 0.00397418
1.19240e+06 0.00402938
1.19460e+06 0.00225319
1.19680e+06 0.00383396
1.19900e+06 0.00369127
1.20120e+06 0.00439386
1.20340e+06 0.00451699
1.20560e+06 0.00432101
1.20780e+06 0.00448845
1.21000e+06 0.00379039
1.21220e+06 0.00227602
1.21440e+06 0.000974328
1.21660e+06 0.00000
1.21880e+06 3.13898e-05
1.22100e+06 0.00237087
1.22320e+06 0.00279802
1.22540e+06 0.00182044
1.22760e+06 0.00586002
1.22980e+06 0.00637089
1.23200e+06 0.00679287
1.23420e+06 1.82945e-05
1.23640e+06 0.00735442
1.23860e+06 0.00783606
1.24080e+06 0.00813583
1.24300e+06 0.00724567
1.24520e+06 0.00756223
1.24740e+06 0.00591513
1.24960e+06 0.00231934
1.25180e+06 3.90156e-06
1.25400e+06 0.00000
1.25620e+06 0.000388056
1.25840e+06 0.00437520
1.26060e+06 0.00829789
1.26280e+06 0.00907982
1.26500e+06 0.00432147
1.26720e+06 0.00000
1.26940e+06 0.00575687
1.27160e+06 0.0132460
1.27380e+06 0.0155735
1.27600e+06 0.0143322
1.27820e+06 0.000124829
1.28040e+06 0.00892108
1.28260e+06 0.0197222
1.28480e+06 0.0234084
1.28700e+06 0.0254721
1.28920e+06 0.0269458
1.29140e+06 0.0271891
1.29360e+06 0.00976646
1.29580e+06 0.0309544
1.29800e+06 0.0318238
1.30020e+06 0.0326236
1.30240e+06 0.0314260
1.30460e+06 0.0336714
1.30680e+06 0.0349267
1.30900e+06 0.0360585
1.31120e+06 0.0355785
1.31340e+06 0.0369747
1.31560e+06 0.0336406
1.31780e+06 0.0268532
1.32000e+06 0.0115587
1.32220e+06 1.54095e-05
1.32440e+06 0.00000
1.32660e+06 0.00112253
1.32880e+06 0.0211630
1.33100e+06 0.0371849
1.33320e+06 0.0532841
1.33540e+06 0.0267232
1.33760e+06 0.0590427
1.33980e+06 0.0705911
1.34200e+06 0.0672933
1.34420e+06 0.0514899
1.34640e+06 0.0141619
1.34860e+06 0.00000
1.35080e+06 5.44885e-05
1.35300e+06 0.0271506
1.35520e+06 0.0654663
1.35740e+06 0.0795388
1.35960e+06 0.0671102
1.36180e+06 0.0154545
1.36400e+06 0.00000
1.36620e+06 0.00000
1.36840e+06 0.0332723
1.37060e+06 0.0942431
1.37280e+06 0.125568
1.37500e+06 0.134070
1.37720e+06 0.0818094
1.37940e+06 0.0770505
1.38160e+06 0.0137134
1.38380e+06 0.00000
1.38600e+06 0.00000
1.38820e+06 0.00241073
1.39040e+06 0.0437224
1.39260e+06 0.144559
1.39480e+06 0.203755
1.39700e+06 0.259760
1.39920e+06 0.293252
1.40140e+06 0.339452
1.40360e+06 0.321242
1.40580e+06 0.391931
1.40800e+06 0.410518
1.41020e+06 0.426659
1.41240e+06 0.394028
1.41460e+06 0.458682
1.41680e+06 0.437690
1.41900e+06 0.478622
1.42120e+06 0.493231
1.42340e+06 0.506633
1.42560e+06 0.506745
1.42780e+06 0.467949
1.43000e+06 0.311315
1.43220e+06 0.185717
1.43440e+06 0.512239
1.43660e+06 0.515927
1.43880e+06 0.490677
1.44100e+06 0.407245
1.44320e+06 0.0254503
1.44540e+06 0.00000
1.44760e+06 0.197465
1.44980e+06 0.435964
1.45200e+06 0.461460
1.45420e+06 0.549141
1.45640e+06 0.564248
1.45860e+06 0.565386
1.46080e+06 0.331284
1.46300e+06 0.500349
1.46520e+06 0.381278
1.46740e+06 0.0587622
1.46960e+06 0.00000
1.47180e+06 0.202894
1.47400e+06 0.429359
1.47620e+06 0.518954
1.47840e+06 0.565627
1.48060e+06 0.608529
1.48280e+06 0.608655
1.48500e+06 0.585473
1.48720e+06 0.0665544
1.48940e+06 0.599077
1.49160e+06 0.208303
1.49380e+06 0.651653
1.49600e+06 0.657093
1.49820e+06 0.663055
1.50040e+06 0.665753
1.50260e+06 0.665477
1.50480e+06 0.664177
1.50700e+06 0.657233
1.50920e+06 0.596652
1.51140e+06 0.220490
1.51360e+06 0.645209
1.51580e+06 0.630053
1.51800e+06 0.643644
1.52020e+06 0.640953
1.52240e+06 0.643344
1.52460e+06 0.381264
1.52680e+06 0.675534
1.52900e+06 0.669858
1.53120e+06 0.679289
1.53340e+06 0.680769
1.53560e+06 0.0992896
1.53780e+06 0.650742
1.54000e+06 0.659715
1.54220e+06 0.269657
1.54440e+06 0.621163
1.54660e+06 0.628914
1.54880e+06 0.601536
1.55100e+06 0.567346
1.55320e+06 0.499744
1.55540e+06 0.0408245
1.55760e+06 0.198035
1.55980e+06 0.00980689
1.56200e+06 0.00000
1.56420e+06 0.00541100
1.56640e+06 0.223869
1.56860e+06 0.426574
1.57080e+06 0.512727
1.57300e+06 0.565652
1.57520e+06 0.600819
1.57740e+06 0.624906
1.57960e+06 0.626527
1.58180e+06 0.609288
1.58400e+06 0.596486
1.58620e+06 0.650541
1.58840e+06 0.647941
1.59060e+06 0.451265
1.59280e+06 0.601706
1.59500e+06 0.557078
1.59720e+06 0.0168491
1.59940e+06 0.374729
1.60160e+06 0.123891
1.60380e+06 0.00000
1.60600e+06 0.00000
1.60820e+06 0.0902116
1.61040e+06 0.353364
1.61260e+06 0.334876
1.61480e+06 0.572698
1.61700e+06 0.608986
1.61920e+06 0.574408
1.62140e+06 0.648208
1.62360e+06 0.657787
1.62580e+06 0.619168
1.62800e+06 0.662925
1.63020e+06 0.677202
1.63240e+06 0.688766
1.63460e+06 0.603348
1.63680e+06 0.684235
1.63900e+06 0.677001
1.64120e+06 0.143433
1.64340e+06 0.654208
1.64560e+06 0.641650
1.64780e+06 0.601783
1.65000e+06 0.0142366
1.65220e+06 0.448837
1.65440e+06 3.77472e-05
1.65660e+06 0.514947
1.65880e+06 0.565698
1.66100e+06 0.558835
1.66320e+06 0.416267
1.66540e+06 0.298231
1.66760e+06 5.61084e-05
1.66980e+06 0.00000
1.67200e+06 0.0895370
1.67420e+06 0.397934
1.67640e+06 0.489259
1.67860e+06 0.517753
1.68080e+06 0.526621
1.68300e+06 0.532786
1.68520e+06 0.330810
1.68740e+06 0.407587
1.68960e+06 0.509758
1.69180e+06 0.481661
1.69400e+06 0.454915
1.69620e+06 0.333897
1.69840e+06 0.270263
1.70060e+06 0.00172379
1.70280e+06 0.0642198
1.70500e+06 0.0506625
1.70720e+06 0.358588
1.70940e+06 0.344293
1.71160e+06 0.0271828
1.71380e+06 0.355043
1.71600e+06 0.358345
1.71820e+06 0.336245
1.72040e+06 0.151621
1.72260e+06 0.291316
1.72480e+06 0.273090
1.72700e+06 0.245450
1.72920e+06 0.213863
1.73140e+06 0.175622
1.73360e+06 0.130777
1.73580e+06 0.0819422
1.73800e+06 0.0352273
1.74020e+06 0.00526873
1.74240e+06 0.00000
1.74460e+06 0.00000
1.74680e+06 0.00000
1.74900e+06 0.00000
1.75120e+06 0.000464906
1.75340e+06 0.0120132
1.75560e+06 0.0383942
1.75780e+06 0.0582975
1.76000e+06 0.0864885
1.76220e+06 0.0870138
1.76440e+06 0.0967063
1.76660e+06 0.0959694
1.76880e+06 0.110532
1.77100e+06 0.0679960
1.77320e+06 0.0999262
1.77540e+06 0.0893415
1.77760e+06 0.0757484
1.77980e+06 0.0591163
1.78200e+06 0.0421169
1.78420e+06 0.0210825
1.78640e+06 0.00875202
1.78860e+06 0.00101571
1.79080e+06 0.00000
1.79300e+06 0.00000
1.79520e+06 0.00000
1.79740e+06 0.00000
1.79960e+06 0.00000
1.80180e+06 0.00000
1.80400e+06 0.00000
1.80620e+06 0.00000
1.80840e+06 7.73146e-05
1.81060e+06 0.00126368
1.81280e+06 0.0132616
1.81500e+06 0.0234111
1.81720e+06 0.00239798
1.81940e+06 0.0362742
1.82160e+06 0.0429015
1.82380e+06 0.0473578
1.82600e+06 0.0438207
1.82820e+06 0.0525272
1.83040e+06 0.0534407
1.83260e+06 0.0526485
1.83480e+06 0.0408828
1.83700e+06 0.0478336
1.83920e+06 0.0499957
1.84140e+06 0.0483694
1.84360e+06 0.0444466
1.84580e+06 0.0443299
1.84800e+06 0.0436359
1.85020e+06 0.0417946
1.85240e+06 0.0397143
1.85460e+06 0.0372330
1.85680e+06 0.0361603
1.85900e+06 0.0338598
1.86120e+06 0.0306849
1.86340e+06 0.0252417
1.86560e+06 0.0144743
1.86780e+06 0.00370058
1.87000e+06 0.00000
1.87220e+06 0.00000
1.87440e+06 0.00322760
1.87660e+06 0.0136422
1.87880e+06 0.0193608
1.88100e+06 0.0195861
1.88320e+06 2.03547e-06
1.88540e+06 0.0150324
1.88760e+06 0.0230472
1.88980e+06 0.0237395
1.89200e+06 0.0238277
1.89420e+06 0.0218731
1.89640e+06 0.00965427
1.89860e+06 0.0180376
1.90080e+06 0.0201481
1.90300e+06 0.0216620
1.90520e+06 0.0215579
1.90740e+06 0.0215483
1.90960e+06 0.0208745
1.91180e+06 0.0200871
1.91400e+06 0.0190348
1.91620e+06 0.0192689
1.91840e+06 0.0190249
1.92060e+06 0.0185025
1.92280e+06 0.0179824
1.92500e+06 0.0167640
1.92720e+06 0.0172066
1.92940e+06 0.0168064
1.93160e+06 0.0163233
1.93380e+06 0.0157780
1.93600e+06 0.0149145
1.93820e+06 0.0147424
1.94040e+06 0.0140183
1.94260e+06 0.0122908
1.94480e+06 0.00684628
1.94700e+06 0.0123932
1.94920e+06 0.0124664
1.95140e+06 0.0122699
1.95360e+06 0.0121734
1.95580e+06 0.0114904
1.95800e+06 0.00486105
1.96020e+06 0.0105642
1.96240e+06 0.0109397
1.96460e+06 0.00652138
1.96680e+06 0.00655987
1.96900e+06 0.0102426
1.97120e+06 0.0105276
1.97340e+06 0.0101357
1.97560e+06 0.00985732
1.97780e+06 0.00951625
1.98000e+06 0.00937703
1.98220e+06 0.00878515
1.98440e+06 0.00864015
1.98660e+06 0.00837487
1.98880e+06 0.00748609
1.99100e+06 0.00783856
1.99320e+06 0.00779912
1.99540e+06 0.00772543
1.99760e+06 0.00754109
1.99980e+06 0.00716536
2.00200e+06 0.00712116
2.00420e+06 0.00728480
2.00640e+06 0.00735468
2.00860e+06 0.00726477
2.01080e+06 0.00696736
2.01300e+06 0.00768536
2.01520e+06 0.00761494
2.01740e+06 0.00717831
2.01960e+06 0.00709340
2.02180e+06 0.00440527
2.02400e+06 0.00463762
2.02620e+06 0.00676616
2.02840e+06 0.00687969
2.03060e+06 0.00687434
2.03280e+06 0.00680499
2.03500e+06 0.00670142
2.03720e+06 0.00657070
2.03940e+06 0.00613779
2.04160e+06 0.00411631
2.04380e+06 0.00000
2.04600e+06 0.00380016
2.04820e+06 0.00583072
2.05040e+06 0.00607311
2.05260e+06 0.00599618
2.05480e+06 0.00582582
2.05700e+06 0.00534874
2.05920e+06 0.00549177
2.06140e+06 0.00541446
2.06360e+06 0.00530802
2.06580e+06 0.00520223
2.06800e+06 0.00487036
2.07020e+06 0.00493829
2.07240e+06 0.00481843
2.07460e+06 0.00463462
2.07680e+06 0.00433580
2.07900e+06 0.00416431
2.08120e+06 0.00293630
2.08340e+06 0.00310114
2.08560e+06 0.00408922
2.08780e+06 0.00390187
2.09000e+06 0.00392680
2.09220e+06 0.00382601
2.09440e+06 0.00360225
2.09660e+06 0.00369873
2.09880e+06 0.00366606
2.10100e+06 0.00340460
2.10320e+06 0.00256428
