# Units:
#   "lambda" is in Angstroms
#   "pass"   is "RQExT", which is the product of the detector's 
#	     responsive quantum efficiency (QE times photoconductive 
#            gain) and the filter transmission.  That is, if you 
#	     multiply incident photons/second at some wavelength by 
#            RQExT at that wavelength, then you get electrons/second 
#            contributed by the incident light at that wavelength. 
#
#Bandpass Name:
#  Blue Peak-up (16)
#Instrument:
#  Spitzer IRS
#original data from http://ssc.spitzer.caltech.edu/irs/bluePUtrans.txt
#.par file created by B. Johnson, 9/2007 




100104.0  0.00149
100298.0  0.00725
100492.0  0.00202
100687.0  0.00222
100883.0  -6.12e-05
101080.0  0.00132
101277.0  -0.000607
101475.0  0.00207
101674.0  0.00322
101874.0  0.00271
102074.0  0.00278
102276.0  0.00268
102478.0  0.00115
102681.0  -0.00109
102885.0  0.000537
103089.0  0.000357
103294.0  0.00327
103501.0  0.00263
103708.0  0.00164
103916.0  0.00303
104124.0  0.00302
104334.0  0.00165
104544.0  0.00204
104755.0  0.00378
104967.0  0.0015
105180.0  0.000248
105394.0  0.00165
105609.0  -0.00163
105824.0  -0.000804
106041.0  -0.00043
106258.0  -0.000639
106476.0  -0.00167
106695.0  -0.00278
106915.0  -0.00318
107136.0  -0.00406
107358.0  -0.00275
107581.0  -0.00277
107804.0  0.00129
108029.0  0.00149
108254.0  0.00345
108481.0  0.00274
108708.0  0.00119
108937.0  0.000879
109166.0  -0.000677
109396.0  -0.00218
109628.0  -0.00287
109860.0  -0.00303
110093.0  -0.0026
110327.0  -0.0014
110563.0  0.000397
110799.0  0.00277
111036.0  0.00292
111274.0  -0.000735
111514.0  -0.00113
111754.0  -0.0017
111995.0  -0.00318
112238.0  -0.00267
112481.0  0.00118
112726.0  0.000211
112971.0  -0.00202
113218.0  -0.00112
113466.0  -0.000317
113715.0  -0.000589
113965.0  -1.81e-05
114215.0  0.000614
114468.0  0.00107
114721.0  0.00213
114975.0  0.00268
115231.0  0.00367
115487.0  0.00511
115745.0  0.00346
116004.0  0.00168
116264.0  0.0024
116526.0  0.000859
116788.0  0.000526
117052.0  0.000427
117316.0  0.000944
117582.0  -0.00523
117850.0  -0.00458
118118.0  -0.00546
118388.0  -0.00281
118659.0  -0.00391
118931.0  0.00103
119204.0  0.00317
119479.0  0.00219
119755.0  0.00253
120032.0  0.00304
120311.0  0.00517
120590.0  0.0056
120871.0  0.00741
121154.0  0.0026
121438.0  0.00138
121723.0  -0.0042
122009.0  -0.00564
122297.0  -0.00547
122586.0  -0.000865
122876.0  0.00235
123168.0  0.00733
123462.0  0.00807
123756.0  0.00721
124052.0  0.0072
124350.0  0.00603
124649.0  0.00452
124949.0  0.00441
125251.0  0.00598
125554.0  0.00487
125859.0  0.00713
126165.0  0.0123
126473.0  0.0164
126782.0  0.0259
127093.0  0.0322
127405.0  0.0386
127719.0  0.0519
128034.0  0.0757
128351.0  0.113
128670.0  0.177
128990.0  0.228
129311.0  0.276
129635.0  0.316
129960.0  0.39
130286.0  0.506
130614.0  0.649
130944.0  0.858
131276.0  1.05
131609.0  1.28
131944.0  1.49
132280.0  1.71
132619.0  1.89
132959.0  2
133300.0  2.09
133644.0  2.14
133989.0  2.13
134336.0  2.1
134685.0  2.14
135036.0  2.18
135389.0  2.26
135743.0  2.34
136099.0  2.55
136457.0  2.69
136817.0  2.78
137179.0  2.8
137543.0  2.85
137909.0  2.77
138277.0  2.76
138647.0  2.77
139018.0  2.81
139392.0  2.82
139768.0  2.85
140146.0  2.85
140525.0  2.84
140907.0  2.82
141291.0  2.79
141677.0  2.75
142065.0  2.75
142456.0  2.75
142848.0  2.77
143243.0  2.77
143640.0  2.78
144038.0  2.81
144440.0  2.82
144843.0  2.78
145249.0  2.81
145657.0  2.84
146067.0  2.87
146480.0  2.89
146895.0  2.93
147312.0  2.96
147732.0  2.94
148154.0  2.94
148578.0  2.91
149005.0  2.86
149435.0  2.77
149867.0  2.71
150301.0  2.65
150738.0  2.61
151177.0  2.56
151619.0  2.5
152064.0  2.45
152511.0  2.39
152961.0  2.35
153414.0  2.32
153869.0  2.28
154327.0  2.26
154787.0  2.25
155251.0  2.27
155717.0  2.36
156186.0  2.45
156658.0  2.51
157133.0  2.58
157610.0  2.67
158091.0  2.67
158574.0  2.64
159061.0  2.61
159550.0  2.59
160043.0  2.54
160538.0  2.49
161037.0  2.46
161538.0  2.41
162043.0  2.36
162551.0  2.32
163062.0  2.29
163577.0  2.28
164094.0  2.3
164615.0  2.32
165140.0  2.33
165667.0  2.33
166198.0  2.34
166733.0  2.34
167271.0  2.34
167812.0  2.32
168357.0  2.29
168905.0  2.28
169457.0  2.27
170013.0  2.26
170572.0  2.28
171135.0  2.33
171702.0  2.35
172272.0  2.31
172846.0  2.35
173424.0  2.42
174006.0  2.43
174592.0  2.49
175182.0  2.5
175776.0  2.5
176374.0  2.49
176975.0  2.38
177582.0  2.28
178192.0  2.24
178806.0  2.22
179425.0  2.23
180048.0  2.21
180675.0  2.18
181307.0  2.19
181943.0  2.24
182584.0  2.21
183229.0  2.19
183879.0  2.25
184533.0  2.21
185192.0  2.08
185856.0  1.88
186525.0  1.57
187198.0  1.18
187876.0  0.801
188559.0  0.5
189248.0  0.282
189941.0  0.166
190639.0  0.0965
191343.0  0.0602
192051.0  0.039
192765.0  0.0273
193485.0  0.0151
194209.0  0.00571
194939.0  -0.000267
195675.0  -0.00407
196416.0  0.00221
197163.0  0.00794
197916.0  0.0103
198674.0  0.0107
199438.0  0.00976
200208.0  0.00496
200984.0  -0.000166
201766.0  -0.00166
202554.0  3.7e-05
203348.0  -0.000934
204149.0  -0.00105
204956.0  -0.00297
205769.0  -0.00207
206589.0  0.00143
207416.0  0.00344
208248.0  0.00468
209088.0  0.0107
209935.0  0.0108
210788.0  0.00585
211648.0  0.00571
212516.0  0.00395
213390.0  0.00108
214272.0  0.000575
215161.0  0.000235
216058.0  -0.000757
216962.0  -0.000769
217873.0  -0.00129
218793.0  -0.00291
219720.0  -0.00558
220655.0  -0.00701
221598.0  -0.00517
222549.0  -0.00221
223508.0  -0.000682
224475.0  0.00293
225452.0  0.00514
226436.0  0.00385
227429.0  0.00031
228431.0  0.000719
229442.0  0.000613
230461.0  -0.000283
231491.0  -0.000937
232528.0  -0.00408
233576.0  -0.00513
234633.0  -0.00674
235700.0  -0.00597
236775.0  -0.0059
237862.0  -0.0019
238958.0  -0.000267
240064.0  -0.00241
241181.0  0.000488
242308.0  -0.0013
243445.0  -0.000179
244594.0  -0.000282
245753.0  0.00367
246923.0  -0.00127
248104.0  -0.000523
249298.0  -0.000723
250502.0  -0.000483
251718.0  -0.000774
252946.0  0.00129
254185.0  0.00351
255438.0  0.00486
256702.0  0.00307
257979.0  0.00408
259269.0  0.00186
260572.0  -7e-05
261888.0  0.00248
263217.0  -0.00446
264560.0  -0.00397
265917.0  -0.00178
267288.0  0.00298
268673.0  0.00826
270072.0  0.0301
271486.0  0.0558
272915.0  0.0916
274359.0  0.127
275818.0  0.152
277293.0  0.159
278784.0  0.146
280291.0  0.12
281814.0  0.0879
283354.0  0.0597
284912.0  0.0379
286485.0  0.0227
288077.0  0.0137
289686.0  0.0101
291313.0  0.0109
292960.0  0.0138
294624.0  0.0227
296308.0  0.0337
298010.0  0.0415
299733.0  0.0401
301475.0  0.0359
303239.0  0.028
305022.0  0.018
306828.0  0.00993
308653.0  0.00586
310502.0  0.00367
312372.0  0.00251
314266.0  0.00201
316182.0  0.00179
318122.0  0.00162
320085.0  0.00138
322074.0  0.00115
324086.0  0.00106
326125.0  0.00107
328188.0  0.00106
330279.0  0.00088
332396.0  0.0007
334541.0  0.000565
336713.0  0.000497
338914.0  0.000387
341143.0  0.000234
343403.0  0.000104
345692.0  2.1e-05
348013.0  -3.61e-05
350363.0  -7.67e-05
