# Units:
#   "lambda" is in Angstroms
#   "pass"   is *probably* the contribution to the detector signal
#            per photon
# Bandpass Name:
#   ch70
# Instrument:
#   Spitzer MIPS
# Notes:
#   - Original data from
#     "http://ssc.spitzer.caltech.edu/irac/spectral_response.html"
#   - ".par" file built automatically by processspitzer.



504646.30  0.000866
507208.00  0.001816
509795.80  0.002936
512410.10  0.004346
515051.40  0.006087
517720.00  0.00817
520416.50  0.010677
523141.20  0.01409
525894.60  0.018454
528677.10  0.023109
531489.20  0.027443
534331.40  0.032523
537204.10  0.040173
540107.90  0.049711
543043.30  0.060504
546010.80  0.073617
549010.80  0.090147
552044.00  0.109523
555110.90  0.12962
558212.10  0.145772
561348.10  0.153541
564519.60  0.158599
567727.10  0.170037
570971.30  0.189803
574252.70  0.214929
577572.10  0.241451
580930.10  0.263499
584327.30  0.279945
587764.50  0.294817
591242.40  0.312668
594761.70  0.336648
598323.20  0.369982
601927.50  0.412077
605575.60  0.454126
609268.10  0.491189
613006.00  0.526436
616789.90  0.559559
620620.90  0.59515
624499.80  0.641587
628427.50  0.694072
632404.90  0.73797
636432.90  0.77468
640512.60  0.808052
644645.00  0.827862
648831.00  0.838341
653071.70  0.848857
657368.20  0.860528
661721.70  0.869998
666133.10  0.883175
670603.80  0.903375
675134.90  0.923421
679727.70  0.945281
684383.40  0.970016
689103.20  0.984766
693888.70  0.989037
698741.10  0.995237
708652.30  0.998268
713714.10  0.999989
718848.70  1.00065
724057.80  0.992201
729342.90  0.982083
734705.70  0.972578
740147.90  0.958518
745671.40  0.938603
751278.00  0.917937
756969.50  0.883038
762747.90  0.832029
768615.20  0.781721
774573.40  0.729882
780624.80  0.670221
786771.40  0.611989
793015.70  0.558421
799359.80  0.505731
805806.20  0.456761
812357.50  0.416541
819016.20  0.379062
825784.90  0.340729
832666.40  0.307558
839663.60  0.279367
846779.40  0.250857
854016.90  0.223651
861379.10  0.200818
868869.30  0.178981
876491.00  0.159608
884247.50  0.144221
892142.60  0.130385
900179.90  0.117319
908363.40  0.107147
916697.00  0.098924
925184.90  0.089555
933831.50  0.081557
942641.30  0.075779
951618.80  0.06901
960769.00  0.061375
970096.80  0.056092
979607.60  0.051865
989306.70  0.046722
999199.70  0.04214
1009293.00  0.038231
1019592.00  0.034554
1030103.00  0.033021
1040833.00  0.03299
1051789.00  0.032422
1062978.00  0.030687
1074408.00  0.030265
1086087.00  0.030992
1098022.00  0.03027
1110222.00  0.02935
