# Units:
#   "lambda" is in Angstroms
#   "pass"   is  the contribution to the detector signal
#            per photon
# Bandpass Name:
#   ch160
# Instrument:
#   Spitzer MIPS
# Notes:
#   - Original data from
#     "http://ssc.spitzer.caltech.edu/mips/spectral_response.html"
#   - ".par" file built automatically by processspitzer.
#   - converted to detector signal per photon (by division by lambda)
#     by B. Johnson, 2008



1000851.00  0.000679
1002105.00  0.000719
1003363.00  0.000556
1004623.00  0.000616
1005887.00  0.000714
1007154.00  0.000746
1008424.00  0.000813
1009697.00  0.000887
1010974.00  0.000832
1012253.00  0.000823
1013536.00  0.00102
1014822.00  0.001049
1016112.00  0.000892
1017405.00  0.000833
1018701.00  0.000957
1021303.00  0.001008
1022609.00  0.001063
1023918.00  0.001138
1025231.00  0.000986
1026547.00  0.001074
1027866.00  0.001058
1029189.00  0.001062
1030516.00  0.001179
1031845.00  0.001104
1033178.00  0.001107
1034515.00  0.00116
1035855.00  0.001207
1037199.00  0.00124
1038546.00  0.001199
1039896.00  0.001149
1041250.00  0.001164
1042608.00  0.001313
1043969.00  0.001407
1045334.00  0.001385
1046702.00  0.001174
1048074.00  0.001071
1049449.00  0.001187
1050828.00  0.001341
1052211.00  0.001347
1053597.00  0.001199
1054987.00  0.001142
1056381.00  0.001146
1057778.00  0.001177
1059179.00  0.001249
1060584.00  0.001296
1061992.00  0.001323
1063404.00  0.001271
1064820.00  0.001287
1066240.00  0.001345
1067664.00  0.001255
1069091.00  0.001132
1070522.00  0.00123
1071957.00  0.001338
1073396.00  0.00132
1074839.00  0.001428
1076286.00  0.001322
1077736.00  0.001133
1079190.00  0.001405
1080649.00  0.001568
1082111.00  0.001491
1083577.00  0.001433
1085048.00  0.001375
1086522.00  0.001283
1088000.00  0.001304
1089482.00  0.001308
1090969.00  0.001221
1092459.00  0.001203
1093954.00  0.001227
1095452.00  0.001403
1096955.00  0.001593
1098462.00  0.001683
1099973.00  0.001717
1101488.00  0.001733
1103007.00  0.00167
1104531.00  0.001674
1106058.00  0.001771
1107590.00  0.00176
1109126.00  0.001898
1110667.00  0.001992
1112212.00  0.002069
1113761.00  0.001969
1115314.00  0.001984
1116872.00  0.002095
1118434.00  0.002008
1121571.00  0.002152
1123146.00  0.002055
1124726.00  0.00199
1126310.00  0.002039
1127899.00  0.002008
1129492.00  0.002044
1131089.00  0.002243
1132691.00  0.002429
1134298.00  0.002409
1135909.00  0.002478
1137525.00  0.00243
1139145.00  0.002791
1140771.00  0.002937
1142400.00  0.002901
1144035.00  0.002954
1145674.00  0.002911
1147317.00  0.003139
1148966.00  0.003487
1150619.00  0.003579
1152277.00  0.00365
1153940.00  0.004221
1155607.00  0.004632
1157279.00  0.004801
1158957.00  0.005226
1160639.00  0.005499
1162326.00  0.005563
1164018.00  0.005586
1165714.00  0.005904
1167416.00  0.006254
1169123.00  0.006506
1170835.00  0.00719
1172552.00  0.007033
1174273.00  0.007282
1176000.00  0.007684
1177732.00  0.00806
1179469.00  0.008184
1181211.00  0.008156
1182959.00  0.00828
1184711.00  0.008491
1186469.00  0.009279
1188232.00  0.009664
1191774.00  0.01057
1193552.00  0.011008
1195337.00  0.011428
1197126.00  0.011675
1198921.00  0.011932
1200721.00  0.012168
1202527.00  0.012634
1204338.00  0.012819
1206154.00  0.013348
1207976.00  0.014249
1209804.00  0.014855
1211637.00  0.015175
1213475.00  0.015494
1215319.00  0.016186
1217169.00  0.016769
1219025.00  0.017615
1220886.00  0.01845
1222752.00  0.01894
1224625.00  0.020494
1226503.00  0.02158
1228387.00  0.022216
1230277.00  0.022997
1232173.00  0.024021
1234074.00  0.025462
1235982.00  0.026856
1237895.00  0.027854
1239814.00  0.029102
1241739.00  0.031815
1243670.00  0.034166
1245608.00  0.03575
1247551.00  0.037398
1249500.00  0.039604
1251456.00  0.041671
1253417.00  0.043993
1255385.00  0.046221
1257359.00  0.048799
1259339.00  0.052304
1261325.00  0.055852
1263318.00  0.059121
1265317.00  0.062129
1267322.00  0.065555
1269334.00  0.06929
1271352.00  0.072799
1273376.00  0.07596
1275407.00  0.079837
1277444.00  0.084795
1279488.00  0.091046
1281539.00  0.096069
1283596.00  0.101371
1285659.00  0.106034
1287730.00  0.111409
1289807.00  0.11755
1291890.00  0.122997
1293981.00  0.128569
1296078.00  0.134865
1298182.00  0.141085
1300293.00  0.149127
1302411.00  0.157153
1304535.00  0.161873
1306667.00  0.170056
1308805.00  0.174668
1310951.00  0.182701
1313104.00  0.187618
1315263.00  0.196562
1317430.00  0.201272
1319604.00  0.209846
1321785.00  0.216065
1323974.00  0.224833
1326169.00  0.229923
1328372.00  0.238921
1330583.00  0.243801
1332800.00  0.253664
1335025.00  0.258511
1337258.00  0.26298
1339498.00  0.271632
1341745.00  0.274246
1344000.00  0.282831
1346263.00  0.29307
1348533.00  0.302802
1350811.00  0.312185
1353097.00  0.320552
1355390.00  0.329461
1357691.00  0.338381
1362317.00  0.355861
1364642.00  0.359784
1366975.00  0.371753
1369315.00  0.387225
1371664.00  0.394897
1374021.00  0.410414
1376386.00  0.426171
1378759.00  0.441642
1381140.00  0.456471
1383530.00  0.472494
1385927.00  0.488269
1388334.00  0.501609
1390748.00  0.509509
1393171.00  0.524192
1395602.00  0.539891
1398042.00  0.554581
1400491.00  0.577903
1402948.00  0.593719
1405413.00  0.608495
1407888.00  0.631868
1410371.00  0.655579
1412862.00  0.677315
1415363.00  0.693122
1417873.00  0.706153
1420391.00  0.719012
1422918.00  0.722206
1425455.00  0.734474
1428000.00  0.745745
1430555.00  0.746758
1433119.00  0.75963
1435691.00  0.771374
1438274.00  0.782881
1440865.00  0.783072
1443466.00  0.794959
1446076.00  0.796216
1448696.00  0.806915
1451325.00  0.807422
1453964.00  0.820347
1456612.00  0.82161
1459270.00  0.832203
1461938.00  0.836641
1464616.00  0.843415
1467303.00  0.842825
1472707.00  0.861841
1475425.00  0.873637
1478152.00  0.88373
1480889.00  0.892259
1483637.00  0.901939
1486394.00  0.911611
1489162.00  0.917572
1491941.00  0.918188
1494729.00  0.92792
1497528.00  0.93777
1500338.00  0.945928
1503158.00  0.9532
1505989.00  0.96115
1508830.00  0.969328
1511683.00  0.977883
1514546.00  0.985373
1517420.00  0.996616
1520304.00  1
1523200.00  0.997502
1526107.00  0.994004
1529025.00  0.990269
1531954.00  0.987743
1534895.00  0.984477
1540809.00  0.985314
1543784.00  0.982577
1546770.00  0.978283
1549768.00  0.974636
1552777.00  0.972424
1555798.00  0.958568
1558831.00  0.953813
1561875.00  0.950024
1564932.00  0.938245
1568000.00  0.934556
1571081.00  0.929952
1574173.00  0.921834
1577278.00  0.923393
1580396.00  0.919243
1583525.00  0.914804
1586667.00  0.91124
1589821.00  0.917976
1592988.00  0.91361
1596168.00  0.908942
1599360.00  0.904104
1602565.00  0.900878
1605783.00  0.897172
1609014.00  0.8947
1612258.00  0.893168
1615515.00  0.892251
1618786.00  0.897844
1622069.00  0.893904
1625366.00  0.892707
1628676.00  0.892636
1632000.00  0.890818
1635338.00  0.897309
1638689.00  0.895937
1642054.00  0.893703
1645432.00  0.890728
1648825.00  0.879323
1652232.00  0.876044
1655652.00  0.8717
1659087.00  0.866135
1662537.00  0.851779
1666000.00  0.845767
1669478.00  0.838796
1672971.00  0.83042
1676478.00  0.815047
1683537.00  0.778169
1687089.00  0.768589
1690656.00  0.750068
1694238.00  0.736388
1697835.00  0.714354
1701447.00  0.701118
1705075.00  0.677703
1708718.00  0.659117
1712377.00  0.631722
1716052.00  0.606756
1719742.00  0.581198
1723449.00  0.555787
1727171.00  0.537662
1730909.00  0.512496
1734664.00  0.486691
1738435.00  0.461555
1742223.00  0.433715
1746026.00  0.410648
1749847.00  0.38751
1753684.00  0.363645
1757539.00  0.340297
1761410.00  0.318419
1765298.00  0.296982
1769204.00  0.280168
1773127.00  0.260376
1777067.00  0.241816
1781025.00  0.226467
1785000.00  0.213148
1788994.00  0.19907
1793005.00  0.185918
1797034.00  0.171976
1801081.00  0.160339
1805147.00  0.149416
1809231.00  0.139542
1813334.00  0.128442
1817455.00  0.119726
1821595.00  0.111632
1825754.00  0.104514
1829932.00  0.097136
1834129.00  0.090419
1838345.00  0.084603
1842581.00  0.079063
1846836.00  0.073074
1851111.00  0.068641
1855406.00  0.064097
1859721.00  0.05968
1864056.00  0.055937
1868412.00  0.052294
1872787.00  0.048154
1877183.00  0.044519
1881600.00  0.041787
1886038.00  0.038495
1890497.00  0.035925
1894977.00  0.033029
1899478.00  0.03089
1904000.00  0.028494
1908544.00  0.026329
1913110.00  0.02435
1917698.00  0.022795
1922308.00  0.021155
1926940.00  0.019437
1931595.00  0.017973
1936271.00  0.016411
1940971.00  0.015204
1945694.00  0.014224
1950439.00  0.013177
1955208.00  0.012445
1964816.00  0.010743
1969655.00  0.010084
1974519.00  0.009292
1979406.00  0.008612
1984318.00  0.008008
1989254.00  0.00739
1994215.00  0.006926
1999200.00  0.006466
