# Units:
#  "lambda" is in Angstroms
#  "pass" is the contribution to the detector signal per photon
#         entering the atmosphere of Earth
#
# Bandpass Name(s): BandC
#
# Instrument: Sofia/HAWC
#
# Determined by: HAWC Instrument Team
#
# Date of determination: Unknown
#
# Meaning of/Reason for default column: Only column available
#
# Notes:
#
#
# Obtained from Ravi Sankrit at the Sofia helpdesk on 2015-May-19 on 
# behalf of the HAWC Instrument Team.  Transmission includes the effect
# of the atmosphere but it is not clear if it includes the CCD QE.
#
# J. Moustakas, 2015-May-19, Siena College

737000. 0.00399789
738000. 0.00440706
739000. 0.00477140
740000. 0.00521955
741000. 0.00576446
742000. 0.00617977
743000. 0.00666970
744000. 0.00649877
745000. 0.00732157
746000. 0.00749610
747000. 0.00769652
748000. 0.00675932
749000. 0.00128653
750000. 0.00174267
751000. 0.00288184
752000. 0.000427070
753000. 0.00000
754000. 0.00000
755000. 0.00000
756000. 0.00158836
757000. 0.00499632
758000. 6.59102e-05
759000. 0.00000
760000. 0.0127878
761000. 0.0194877
762000. 0.0225989
763000. 0.0179522
764000. 0.00829324
765000. 0.0278305
766000. 0.0325444
767000. 0.0345549
768000. 0.0373533
769000. 0.0400933
770000. 0.0420992
771000. 0.0445403
772000. 0.0460519
773000. 0.0484679
774000. 0.0506259
775000. 0.0501451
776000. 0.0515214
777000. 0.0432921
778000. 0.0294120
779000. 0.0561135
780000. 0.0575436
781000. 0.0554494
782000. 0.0503072
783000. 0.0417862
784000. 0.0265677
785000. 0.00797774
786000. 7.30898e-05
787000. 0.00000
788000. 0.00000
789000. 0.00000
790000. 0.00166075
791000. 0.0297964
792000. 0.0605287
793000. 0.0873632
794000. 0.106998
795000. 0.0949884
796000. 0.133458
797000. 0.146270
798000. 0.166726
799000. 0.180008
800000. 0.191705
801000. 0.202958
802000. 0.184631
803000. 0.225172
804000. 0.237093
805000. 0.237350
806000. 0.239458
807000. 0.269959
808000. 0.230968
809000. 0.287176
810000. 0.288229
811000. 0.265029
812000. 0.000291717
813000. 0.226773
814000. 0.000625217
815000. 0.247769
816000. 0.185509
817000. 0.0725195
818000. 0.0498498
819000. 0.000574675
820000. 0.00000
821000. 0.00000
822000. 0.00879655
823000. 0.0965273
824000. 0.183943
825000. 0.263856
826000. 0.342332
827000. 0.374105
828000. 0.374510
829000. 0.284829
830000. 0.0416354
831000. 0.160834
832000. 0.00256714
833000. 0.00000
834000. 0.0363444
835000. 0.253454
836000. 0.252884
837000. 0.471940
838000. 0.521332
839000. 0.545708
840000. 0.566120
841000. 0.578580
842000. 0.586946
843000. 0.589720
844000. 0.585988
845000. 0.564750
846000. 0.494400
847000. 0.139025
848000. 0.00194099
849000. 0.432370
850000. 0.578250
851000. 0.616063
852000. 0.635976
853000. 0.641116
854000. 0.542853
855000. 0.638152
856000. 0.640341
857000. 0.516578
858000. 0.263625
859000. 0.631391
860000. 0.647748
861000. 0.627119
862000. 0.661135
863000. 0.661222
864000. 0.504510
865000. 0.664138
866000. 0.665934
867000. 0.664395
868000. 0.666003
869000. 0.670560
870000. 0.662162
871000. 0.672571
872000. 0.674803
873000. 0.673540
874000. 0.262842
875000. 0.668909
876000. 0.649280
877000. 0.671198
878000. 0.672157
879000. 0.672333
880000. 0.635622
881000. 0.636065
882000. 0.653412
883000. 0.652640
884000. 0.649314
885000. 0.644577
886000. 0.638543
887000. 0.632150
888000. 0.624267
889000. 0.615703
890000. 0.603269
891000. 0.587706
892000. 0.575237
893000. 0.545826
894000. 0.507012
895000. 0.448990
896000. 0.355877
897000. 0.212419
898000. 0.0450088
899000. 0.00000
900000. 0.00000
901000. 0.000233530
902000. 0.0762943
903000. 0.242907
904000. 0.366666
905000. 0.419692
906000. 0.515800
907000. 0.550650
908000. 0.567044
909000. 0.518129
910000. 0.576497
911000. 0.606892
912000. 0.612435
913000. 0.617565
914000. 0.617525
915000. 0.620675
916000. 0.622164
917000. 0.621284
918000. 0.612811
919000. 0.568960
920000. 0.615628
921000. 0.610929
922000. 0.602238
923000. 0.595480
924000. 0.557339
925000. 0.555113
926000. 0.497563
927000. 0.281726
928000. 0.00000
929000. 0.173445
930000. 0.453293
931000. 0.515597
932000. 0.514019
933000. 0.389420
934000. 0.00793647
935000. 0.452684
936000. 0.503640
937000. 0.337998
938000. 0.492618
939000. 0.460526
940000. 0.359409
941000. 0.272563
942000. 0.00000
943000. 0.187939
944000. 0.230838
945000. 0.0897175
946000. 0.00000
947000. 0.00000
948000. 0.0174091
949000. 0.163106
950000. 0.252277
951000. 0.180748
952000. 0.224680
953000. 0.166670
954000. 0.0596032
955000. 0.000727872
956000. 0.00000
957000. 0.00000
958000. 0.00465026
959000. 0.00000
960000. 0.118171
961000. 0.221412
962000. 0.222074
963000. 0.325892
964000. 0.346462
965000. 0.299894
966000. 0.347111
967000. 0.351489
968000. 0.0690805
969000. 0.351189
970000. 0.352887
971000. 0.349059
972000. 0.343672
973000. 0.325003
974000. 0.331506
975000. 0.326049
976000. 0.315956
977000. 0.305067
978000. 0.292460
979000. 0.279111
980000. 0.261357
981000. 0.226983
982000. 0.199716
983000. 0.132609
984000. 0.0147378
985000. 0.00000
986000. 0.0298623
987000. 0.101268
988000. 0.109653
989000. 0.0448361
990000. 0.0642846
991000. 0.0310389
992000. 0.00605460
993000. 5.08260e-05
994000. 0.00000
995000. 0.00000
996000. 0.00000
997000. 0.000116480
998000. 0.00199360
999000. 0.0206332
1.00000e+06 0.00837611
1.00100e+06 0.0570863
1.00200e+06 0.0648827
1.00300e+06 0.0618525
1.00400e+06 0.0450711
1.00500e+06 0.0430512
1.00600e+06 0.0211472
1.00700e+06 0.00358146
1.00800e+06 0.00000
1.00900e+06 0.00000
1.01000e+06 0.00000
1.01100e+06 0.00000
1.01200e+06 0.00000
1.01300e+06 0.0116182
1.01400e+06 0.0353371
1.01500e+06 0.0347097
1.01600e+06 0.0682259
1.01700e+06 0.0775582
1.01800e+06 0.0828159
1.01900e+06 0.0765646
1.02000e+06 0.0394481
1.02100e+06 0.0855035
1.02200e+06 0.0858727
1.02300e+06 0.0189612
1.02400e+06 0.0827588
1.02500e+06 0.0844747
1.02600e+06 0.0830190
1.02700e+06 0.0808473
1.02800e+06 0.0773298
1.02900e+06 0.0763406
1.03000e+06 0.0739861
1.03100e+06 0.0710867
1.03200e+06 0.0650741
1.03300e+06 0.0193760
1.03400e+06 0.0602411
1.03500e+06 0.0562815
1.03600e+06 0.0497682
1.03700e+06 0.0388029
1.03800e+06 0.0159756
1.03900e+06 0.00000
1.04000e+06 6.74574e-05
1.04100e+06 0.00000
1.04200e+06 0.00520360
1.04300e+06 0.0251665
1.04400e+06 0.0350061
1.04500e+06 0.0386307
1.04600e+06 0.0358313
1.04700e+06 0.0400171
1.04800e+06 0.0395212
1.04900e+06 0.0387731
1.05000e+06 0.0260466
1.05100e+06 0.0362831
1.05200e+06 0.0339597
1.05300e+06 0.00546473
1.05400e+06 0.0307357
1.05500e+06 0.0315125
1.05600e+06 0.0307539
1.05700e+06 0.0295968
1.05800e+06 0.0279484
1.05900e+06 0.0270604
1.06000e+06 0.0228888
1.06100e+06 0.0249613
1.06200e+06 0.0236176
1.06300e+06 0.0219395
1.06400e+06 0.0205786
1.06500e+06 0.0203341
1.06600e+06 0.0191690
1.06700e+06 0.0178022
1.06800e+06 0.0163884
1.06900e+06 0.0145335
1.07000e+06 0.0131133
1.07100e+06 0.00994514
1.07200e+06 0.00987938
1.07300e+06 0.00779208
1.07400e+06 0.00550643
1.07500e+06 0.00336576
1.07600e+06 0.00142781
1.07700e+06 3.72233e-06
1.07800e+06 8.35974e-06
1.07900e+06 0.00000
1.08000e+06 0.00000
1.08100e+06 0.00000
1.08200e+06 0.00000
1.08300e+06 0.00000
1.08400e+06 6.34905e-05
1.08500e+06 2.94596e-05
1.08600e+06 0.00157449
1.08700e+06 0.00268219
1.08800e+06 0.00386421
1.08900e+06 0.00416373
1.09000e+06 0.00579302
1.09100e+06 0.00627968
1.09200e+06 0.00653782
1.09300e+06 0.00468349
1.09400e+06 0.00519068
1.09500e+06 0.00711552
1.09600e+06 0.00727265
1.09700e+06 0.00743137
1.09800e+06 0.00729967
1.09900e+06 0.00424635
1.10000e+06 0.00709559
1.10100e+06 0.00705084
1.10200e+06 0.00696175
1.10300e+06 0.00675940
1.10400e+06 0.00658956
1.10500e+06 0.00638203
1.10600e+06 0.00617689
1.10700e+06 0.00594938
1.10800e+06 0.00566467
1.10900e+06 0.00528228
1.11000e+06 0.00483965
1.11100e+06 0.00495909
1.11200e+06 0.00474499
1.11300e+06 0.00413997
1.11400e+06 0.00299796
1.11500e+06 0.000858345
1.11600e+06 0.00000
1.11700e+06 3.38290e-05
1.11800e+06 0.00164474
1.11900e+06 0.00141147
1.12000e+06 0.00292390
1.12100e+06 0.00246888
1.12200e+06 0.00279831
1.12300e+06 0.00241164
1.12400e+06 0.00137206
1.12500e+06 0.00000
1.12600e+06 0.000787040
1.12700e+06 0.00123814
1.12800e+06 0.000862035
1.12900e+06 0.000718465
1.13000e+06 0.000329394
1.13100e+06 0.000107900
