# Units:
#   "lambda" is in Angstroms
#   "pass"   is  the contribution to the detector signal
#            per photon
# Bandpass Name:
#   ch70
# Instrument:
#   Spitzer MIPS
# Notes:
#   - Original data from
#     "http://ssc.spitzer.caltech.edu/mips/spectral_response.html"
#   - ".par" file built automatically by processspitzer.
#   - converted to detector signal per photon (by division by lambda)
#     by B. Johnson, 2008



504646.30  0.001201
507208.00  0.002505
509795.80  0.00403
512410.10  0.005935
515051.40  0.00827
517720.00  0.011043
520416.50  0.014357
523141.20  0.018847
525894.60  0.024555
528677.10  0.030587
531489.20  0.036132
534331.40  0.042592
537204.10  0.052329
540107.90  0.064406
543043.30  0.077965
546010.80  0.094347
549010.80  0.1149
552044.00  0.13883
555110.90  0.163397
558212.10  0.182737
561348.10  0.191401
564519.60  0.196595
567727.10  0.209582
570971.30  0.232616
574252.70  0.261905
577572.10  0.292532
580930.10  0.3174
584327.30  0.335249
587764.50  0.350995
591242.40  0.370057
594761.70  0.396081
598323.20  0.432709
601927.50  0.479055
605575.60  0.524758
609268.10  0.564146
613006.00  0.600941
616789.90  0.634834
620620.90  0.671044
624499.80  0.71891
628427.50  0.77286
632404.90  0.816572
636432.90  0.851767
640512.60  0.882801
644645.00  0.898646
648831.00  0.90415
653071.70  0.909546
657368.20  0.916026
661721.70  0.920013
666133.10  0.927763
670603.80  0.942656
675134.90  0.957107
679727.70  0.973144
684383.40  0.991815
689103.20  1
693888.70  0.99741
698741.10  0.996693
708652.30  0.985746
713714.10  0.980443
718848.70  0.974078
724057.80  0.95891
729342.90  0.942253
734705.70  0.926323
740147.90  0.906219
745671.40  0.880817
751278.00  0.854995
756969.50  0.816305
762747.90  0.763324
768615.20  0.711695
774573.40  0.659388
780624.80  0.600796
786771.40  0.54431
793015.70  0.492755
799359.80  0.442719
805806.20  0.396652
812357.50  0.358808
819016.20  0.323869
825784.90  0.288731
832666.40  0.258468
839663.60  0.23282
846779.40  0.207304
854016.90  0.183255
861379.10  0.16314
868869.30  0.144146
876491.00  0.127426
884247.50  0.114132
892142.60  0.102269
900179.90  0.091199
908363.40  0.082541
916697.00  0.075514
925184.90  0.067735
933831.50  0.061114
942641.30  0.056254
951618.80  0.050746
960769.00  0.044702
970096.80  0.040461
979607.60  0.037049
989306.70  0.033048
999199.70  0.029512
1009293.00  0.026506
1019592.00  0.023715
1030103.00  0.022432
1040833.00  0.02218
1051789.00  0.021571
1062978.00  0.020201
1074408.00  0.019712
1086087.00  0.019968
1098022.00  0.019291
1110222.00  0.018499
